Data from TORH001341_13-32-42-564.txt Node
Date: Mon Oct 17 13:32:42 CEST 2022
User: M Squared
Spectrometer: TORH00134
Trigger mode: 0
Integration Time (sec): 1.000000E-1
Scans to average: 1
Electric dark correction enabled: true
Nonlinearity correction enabled: false
Boxcar width: 0
XAxis mode: Wavelengths
Number of Pixels in Spectrum: 2048
>>>>>Begin Spectral Data<<<<<
342.893	-99.54
343.163	-99.54
343.434	-99.54
343.705	-76.02
343.975	-20.44
344.246	-86.71
344.516	-71.75
344.787	-7.62
345.057	-18.3
345.328	0.94
345.598	-9.75
345.869	-9.75
346.139	20.18
346.409	35.14
346.68	20.18
346.95	109.96
347.22	97.13
347.491	116.37
347.761	127.06
348.031	97.13
348.301	90.72
348.572	236.09
348.842	261.74
349.112	186.92
349.382	229.67
349.652	204.02
349.922	227.54
350.192	214.71
350.462	240.36
350.732	251.05
351.002	300.22
351.272	330.15
351.542	251.05
351.812	310.91
352.082	221.12
352.352	253.19
352.621	233.95
352.891	257.47
353.161	246.78
353.431	310.91
353.701	195.47
353.97	253.19
354.24	221.12
354.51	283.12
354.779	214.71
355.049	216.85
355.318	223.26
355.588	229.67
355.858	238.23
356.127	236.09
356.397	263.88
356.666	272.43
356.936	263.88
357.205	208.3
357.474	253.19
357.744	229.67
358.013	261.74
358.283	248.91
358.552	244.64
358.821	225.4
359.09	163.4
359.36	208.3
359.629	204.02
359.898	223.26
360.167	191.2
360.436	240.36
360.706	212.57
360.975	227.54
361.244	236.09
361.513	233.95
361.782	210.44
362.051	242.5
362.32	229.67
362.589	244.64
362.858	216.85
363.127	285.26
363.396	266.02
363.664	221.12
363.933	206.16
364.202	191.2
364.471	251.05
364.74	287.39
365.008	246.78
365.277	231.81
365.546	201.88
365.815	191.2
366.083	208.3
366.352	255.33
366.62	218.99
366.889	223.26
367.158	289.53
367.426	253.19
367.695	317.32
367.963	210.44
368.232	236.09
368.5	255.33
368.768	255.33
369.037	218.99
369.305	236.09
369.573	255.33
369.842	208.3
370.11	208.3
370.378	244.64
370.647	227.54
370.915	236.09
371.183	285.26
371.451	248.91
371.719	206.16
371.988	238.23
372.256	231.81
372.524	289.53
372.792	227.54
373.06	221.12
373.328	180.51
373.596	261.74
373.864	280.98
374.132	204.02
374.4	214.71
374.667	268.15
374.935	321.6
375.203	184.78
375.471	263.88
375.739	229.67
376.007	261.74
376.274	283.12
376.542	229.67
376.81	244.64
377.077	208.3
377.345	195.47
377.613	244.64
377.88	227.54
378.148	268.15
378.415	201.88
378.683	240.36
378.95	236.09
379.218	291.67
379.485	268.15
379.753	201.88
380.02	259.6
380.287	195.47
380.555	244.64
380.822	289.53
381.089	261.74
381.357	191.2
381.624	259.6
381.891	289.53
382.158	231.81
382.426	298.08
382.693	231.81
382.96	268.15
383.227	238.23
383.494	251.05
383.761	233.95
384.028	189.06
384.295	375.04
384.562	212.57
384.829	253.19
385.096	287.39
385.363	171.96
385.63	278.84
385.897	319.46
386.164	189.06
386.43	253.19
386.697	227.54
386.964	266.02
387.231	255.33
387.497	201.88
387.764	189.06
388.031	186.92
388.297	298.08
388.564	242.5
388.831	199.75
389.097	233.95
389.364	218.99
389.63	242.5
389.897	253.19
390.163	227.54
390.43	233.95
390.696	244.64
390.962	212.57
391.229	289.53
391.495	248.91
391.761	285.26
392.028	221.12
392.294	246.78
392.56	248.91
392.826	208.3
393.093	208.3
393.359	268.15
393.625	259.6
393.891	225.4
394.157	180.51
394.423	289.53
394.689	263.88
394.955	233.95
395.221	210.44
395.487	225.4
395.753	238.23
396.019	293.81
396.285	199.75
396.551	274.57
396.817	251.05
397.082	255.33
397.348	261.74
397.614	223.26
397.88	259.6
398.146	242.5
398.411	276.71
398.677	263.88
398.942	231.81
399.208	208.3
399.474	184.78
399.739	236.09
400.005	238.23
400.27	225.4
400.536	246.78
400.801	216.85
401.067	255.33
401.332	242.5
401.598	197.61
401.863	274.57
402.128	306.63
402.394	276.71
402.659	221.12
402.924	244.64
403.189	287.39
403.455	276.71
403.72	334.42
403.985	231.81
404.25	223.26
404.515	259.6
404.78	214.71
405.045	218.99
405.31	223.26
405.575	272.43
405.84	197.61
406.105	266.02
406.37	257.47
406.635	238.23
406.9	238.23
407.165	240.36
407.43	229.67
407.694	231.81
407.959	186.92
408.224	204.02
408.489	244.64
408.753	268.15
409.018	266.02
409.283	276.71
409.547	240.36
409.812	302.36
410.077	229.67
410.341	236.09
410.606	278.84
410.87	212.57
411.135	255.33
411.399	218.99
411.663	238.23
411.928	255.33
412.192	244.64
412.457	208.3
412.721	229.67
412.985	253.19
413.249	221.12
413.514	242.5
413.778	300.22
414.042	268.15
414.306	195.47
414.57	248.91
414.835	208.3
415.099	251.05
415.363	248.91
415.627	287.39
415.891	238.23
416.155	289.53
416.419	242.5
416.683	268.15
416.946	257.47
417.21	236.09
417.474	257.47
417.738	257.47
418.002	231.81
418.266	248.91
418.529	270.29
418.793	300.22
419.057	278.84
419.32	263.88
419.584	317.32
419.848	261.74
420.111	208.3
420.375	238.23
420.638	306.63
420.902	270.29
421.165	216.85
421.429	270.29
421.692	242.5
421.956	229.67
422.219	298.08
422.482	257.47
422.746	261.74
423.009	263.88
423.272	244.64
423.536	298.08
423.799	248.91
424.062	255.33
424.325	304.5
424.588	278.84
424.852	248.91
425.115	272.43
425.378	259.6
425.641	229.67
425.904	276.71
426.167	263.88
426.43	236.09
426.693	274.57
426.956	255.33
427.218	242.5
427.481	242.5
427.744	208.3
428.007	240.36
428.27	274.57
428.532	259.6
428.795	278.84
429.058	266.02
429.321	263.88
429.583	276.71
429.846	313.05
430.108	259.6
430.371	246.78
430.634	291.67
430.896	270.29
431.159	302.36
431.421	214.71
431.683	257.47
431.946	283.12
432.208	223.26
432.471	276.71
432.733	295.95
432.995	225.4
433.258	298.08
433.52	274.57
433.782	246.78
434.044	300.22
434.306	272.43
434.569	272.43
434.831	221.12
435.093	244.64
435.355	255.33
435.617	238.23
435.879	216.85
436.141	310.91
436.403	287.39
436.665	310.91
436.927	251.05
437.189	251.05
437.45	231.81
437.712	268.15
437.974	253.19
438.236	330.15
438.498	259.6
438.759	276.71
439.021	242.5
439.283	255.33
439.544	248.91
439.806	280.98
440.067	313.05
440.329	276.71
440.59	208.3
440.852	270.29
441.113	240.36
441.375	236.09
441.636	231.81
441.898	255.33
442.159	283.12
442.42	300.22
442.682	298.08
442.943	300.22
443.204	276.71
443.466	216.85
443.727	274.57
443.988	238.23
444.249	315.19
444.51	283.12
444.771	257.47
445.032	199.75
445.293	289.53
445.554	221.12
445.815	199.75
446.076	261.74
446.337	272.43
446.598	272.43
446.859	313.05
447.12	248.91
447.381	276.71
447.642	336.56
447.902	300.22
448.163	336.56
448.424	276.71
448.685	268.15
448.945	263.88
449.206	225.4
449.466	317.32
449.727	317.32
449.988	259.6
450.248	276.71
450.509	289.53
450.769	310.91
451.03	283.12
451.29	270.29
451.55	212.57
451.811	268.15
452.071	272.43
452.331	280.98
452.592	208.3
452.852	278.84
453.112	313.05
453.372	233.95
453.633	225.4
453.893	253.19
454.153	321.6
454.413	325.87
454.673	236.09
454.933	204.02
455.193	285.26
455.453	261.74
455.713	227.54
455.973	298.08
456.233	263.88
456.493	242.5
456.752	244.64
457.012	285.26
457.272	280.98
457.532	289.53
457.792	240.36
458.051	285.26
458.311	248.91
458.571	201.88
458.83	332.29
459.09	270.29
459.349	328.01
459.609	313.05
459.868	225.4
460.128	251.05
460.387	272.43
460.647	313.05
460.906	231.81
461.166	280.98
461.425	242.5
461.684	251.05
461.944	261.74
462.203	242.5
462.462	291.67
462.721	291.67
462.98	238.23
463.24	253.19
463.499	248.91
463.758	259.6
464.017	257.47
464.276	227.54
464.535	208.3
464.794	298.08
465.053	236.09
465.312	255.33
465.571	306.63
465.83	225.4
466.088	261.74
466.347	276.71
466.606	221.12
466.865	272.43
467.123	240.36
467.382	233.95
467.641	233.95
467.9	285.26
468.158	236.09
468.417	199.75
468.675	238.23
468.934	315.19
469.192	259.6
469.451	272.43
469.709	317.32
469.968	280.98
470.226	261.74
470.484	251.05
470.743	231.81
471.001	251.05
471.259	268.15
471.518	319.46
471.776	263.88
472.034	293.81
472.292	283.12
472.55	251.05
472.809	221.12
473.067	199.75
473.325	291.67
473.583	302.36
473.841	180.51
474.099	266.02
474.357	251.05
474.615	298.08
474.872	255.33
475.13	289.53
475.388	298.08
475.646	291.67
475.904	300.22
476.161	257.47
476.419	266.02
476.677	257.47
476.935	317.32
477.192	328.01
477.45	261.74
477.707	287.39
477.965	285.26
478.222	268.15
478.48	246.78
478.737	259.6
478.995	368.63
479.252	304.5
479.51	289.53
479.767	261.74
480.024	323.74
480.282	293.81
480.539	270.29
480.796	268.15
481.053	278.84
481.31	266.02
481.568	263.88
481.825	259.6
482.082	268.15
482.339	255.33
482.596	302.36
482.853	261.74
483.11	280.98
483.367	257.47
483.624	248.91
483.881	246.78
484.138	253.19
484.394	300.22
484.651	293.81
484.908	285.26
485.165	285.26
485.421	291.67
485.678	244.64
485.935	248.91
486.191	257.47
486.448	291.67
486.705	191.2
486.961	233.95
487.218	242.5
487.474	259.6
487.731	317.32
487.987	298.08
488.243	270.29
488.5	248.91
488.756	321.6
489.012	304.5
489.269	244.64
489.525	257.47
489.781	195.47
490.037	295.95
490.294	266.02
490.55	298.08
490.806	238.23
491.062	257.47
491.318	274.57
491.574	276.71
491.83	317.32
492.086	304.5
492.342	340.84
492.598	263.88
492.854	251.05
493.11	293.81
493.365	259.6
493.621	278.84
493.877	253.19
494.133	285.26
494.388	276.71
494.644	304.5
494.9	278.84
495.155	298.08
495.411	206.16
495.667	201.88
495.922	280.98
496.178	300.22
496.433	251.05
496.688	272.43
496.944	274.57
497.199	268.15
497.455	287.39
497.71	285.26
497.965	246.78
498.221	295.95
498.476	287.39
498.731	323.74
498.986	251.05
499.241	255.33
499.496	342.98
499.752	221.12
500.007	231.81
500.262	330.15
500.517	278.84
500.772	280.98
501.027	306.63
501.282	306.63
501.536	278.84
501.791	291.67
502.046	261.74
502.301	229.67
502.556	276.71
502.81	310.91
503.065	257.47
503.32	270.29
503.574	263.88
503.829	225.4
504.084	302.36
504.338	199.75
504.593	233.95
504.847	306.63
505.102	313.05
505.356	227.54
505.611	255.33
505.865	214.71
506.119	246.78
506.374	287.39
506.628	313.05
506.882	208.3
507.136	298.08
507.391	238.23
507.645	304.5
507.899	259.6
508.153	266.02
508.407	257.47
508.661	270.29
508.915	266.02
509.169	274.57
509.423	283.12
509.677	313.05
509.931	287.39
510.185	259.6
510.439	255.33
510.693	261.74
510.946	319.46
511.2	272.43
511.454	313.05
511.708	268.15
511.961	255.33
512.215	266.02
512.469	259.6
512.722	298.08
512.976	287.39
513.229	289.53
513.483	298.08
513.736	251.05
513.99	246.78
514.243	338.7
514.496	285.26
514.75	328.01
515.003	251.05
515.256	315.19
515.51	253.19
515.763	285.26
516.016	291.67
516.269	338.7
516.522	302.36
516.775	218.99
517.029	263.88
517.282	268.15
517.535	280.98
517.788	263.88
518.041	227.54
518.293	259.6
518.546	244.64
518.799	276.71
519.052	272.43
519.305	274.57
519.558	261.74
519.81	248.91
520.063	266.02
520.316	295.95
520.568	289.53
520.821	300.22
521.074	306.63
521.326	319.46
521.579	319.46
521.831	330.15
522.084	238.23
522.336	272.43
522.589	336.56
522.841	270.29
523.093	274.57
523.346	308.77
523.598	300.22
523.85	287.39
524.102	295.95
524.355	302.36
524.607	340.84
524.859	272.43
525.111	263.88
525.363	300.22
525.615	285.26
525.867	317.32
526.119	210.44
526.371	298.08
526.623	319.46
526.875	351.53
527.127	302.36
527.379	321.6
527.63	295.95
527.882	257.47
528.134	295.95
528.386	272.43
528.637	270.29
528.889	263.88
529.141	229.67
529.392	295.95
529.644	238.23
529.895	244.64
530.147	287.39
530.398	345.11
530.65	272.43
530.901	285.26
531.152	293.81
531.404	323.74
531.655	283.12
531.906	251.05
532.158	236.09
532.409	300.22
532.66	274.57
532.911	268.15
533.162	287.39
533.413	287.39
533.664	291.67
533.915	328.01
534.166	300.22
534.417	206.16
534.668	238.23
534.919	248.91
535.17	276.71
535.421	306.63
535.672	283.12
535.923	253.19
536.173	283.12
536.424	291.67
536.675	285.26
536.925	225.4
537.176	268.15
537.427	336.56
537.677	323.74
537.928	287.39
538.178	253.19
538.429	274.57
538.679	283.12
538.93	233.95
539.18	274.57
539.43	276.71
539.681	328.01
539.931	347.25
540.181	223.26
540.432	216.85
540.682	272.43
540.932	248.91
541.182	402.83
541.432	280.98
541.682	306.63
541.932	242.5
542.182	285.26
542.432	293.81
542.682	242.5
542.932	330.15
543.182	270.29
543.432	304.5
543.682	306.63
543.932	244.64
544.181	293.81
544.431	304.5
544.681	255.33
544.93	319.46
545.18	248.91
545.43	304.5
545.679	227.54
545.929	304.5
546.178	308.77
546.428	308.77
546.677	268.15
546.927	276.71
547.176	377.18
547.425	276.71
547.675	302.36
547.924	310.91
548.173	298.08
548.422	283.12
548.672	261.74
548.921	251.05
549.17	300.22
549.419	295.95
549.668	274.57
549.917	274.57
550.166	242.5
550.415	278.84
550.664	283.12
550.913	261.74
551.162	251.05
551.411	233.95
551.66	255.33
551.908	304.5
552.157	272.43
552.406	295.95
552.655	285.26
552.903	257.47
553.152	268.15
553.4	300.22
553.649	304.5
553.898	274.57
554.146	244.64
554.395	345.11
554.643	302.36
554.891	225.4
555.14	306.63
555.388	253.19
555.636	306.63
555.885	268.15
556.133	266.02
556.381	268.15
556.629	276.71
556.878	225.4
557.126	278.84
557.374	293.81
557.622	302.36
557.87	216.85
558.118	306.63
558.366	248.91
558.614	242.5
558.862	270.29
559.11	293.81
559.357	261.74
559.605	336.56
559.853	225.4
560.101	280.98
560.348	255.33
560.596	310.91
560.844	283.12
561.091	244.64
561.339	302.36
561.586	317.32
561.834	283.12
562.081	304.5
562.329	298.08
562.576	244.64
562.824	272.43
563.071	244.64
563.318	268.15
563.566	323.74
563.813	308.77
564.06	274.57
564.307	287.39
564.555	261.74
564.802	272.43
565.049	298.08
565.296	272.43
565.543	274.57
565.79	278.84
566.037	253.19
566.284	283.12
566.531	263.88
566.778	293.81
567.024	287.39
567.271	300.22
567.518	270.29
567.765	315.19
568.012	231.81
568.258	334.42
568.505	280.98
568.751	283.12
568.998	255.33
569.245	360.08
569.491	255.33
569.738	276.71
569.984	289.53
570.23	319.46
570.477	306.63
570.723	304.5
570.97	291.67
571.216	289.53
571.462	328.01
571.708	276.71
571.955	295.95
572.201	221.12
572.447	328.01
572.693	330.15
572.939	313.05
573.185	310.91
573.431	257.47
573.677	268.15
573.923	289.53
574.169	300.22
574.415	236.09
574.661	302.36
574.906	308.77
575.152	236.09
575.398	257.47
575.644	287.39
575.889	289.53
576.135	289.53
576.381	287.39
576.626	302.36
576.872	272.43
577.117	238.23
577.363	229.67
577.608	351.53
577.854	263.88
578.099	240.36
578.344	287.39
578.59	310.91
578.835	293.81
579.08	306.63
579.325	263.88
579.571	253.19
579.816	300.22
580.061	334.42
580.306	321.6
580.551	345.11
580.796	255.33
581.041	295.95
581.286	295.95
581.531	261.74
581.776	298.08
582.021	321.6
582.265	285.26
582.51	248.91
582.755	272.43
583	278.84
583.244	233.95
583.489	251.05
583.734	189.06
583.978	325.87
584.223	313.05
584.467	304.5
584.712	325.87
584.956	298.08
585.201	270.29
585.445	340.84
585.689	248.91
585.934	259.6
586.178	280.98
586.422	242.5
586.667	210.44
586.911	293.81
587.155	289.53
587.399	248.91
587.643	270.29
587.887	306.63
588.131	266.02
588.375	251.05
588.619	266.02
588.863	280.98
589.107	270.29
589.351	280.98
589.595	276.71
589.839	251.05
590.082	266.02
590.326	306.63
590.57	266.02
590.813	306.63
591.057	242.5
591.301	270.29
591.544	293.81
591.788	280.98
592.031	298.08
592.275	283.12
592.518	302.36
592.762	253.19
593.005	225.4
593.248	310.91
593.492	287.39
593.735	251.05
593.978	332.29
594.221	255.33
594.464	261.74
594.708	304.5
594.951	306.63
595.194	278.84
595.437	310.91
595.68	266.02
595.923	261.74
596.166	242.5
596.409	278.84
596.651	357.94
596.894	259.6
597.137	332.29
597.38	321.6
597.623	300.22
597.865	287.39
598.108	300.22
598.351	298.08
598.593	317.32
598.836	255.33
599.078	251.05
599.321	266.02
599.563	285.26
599.806	272.43
600.048	313.05
600.29	266.02
600.533	263.88
600.775	317.32
601.017	332.29
601.26	302.36
601.502	283.12
601.744	253.19
601.986	263.88
602.228	225.4
602.47	268.15
602.712	225.4
602.954	229.67
603.196	313.05
603.438	216.85
603.68	323.74
603.922	293.81
604.164	253.19
604.405	246.78
604.647	276.71
604.889	261.74
605.131	246.78
605.372	291.67
605.614	278.84
605.855	295.95
606.097	272.43
606.338	276.71
606.58	218.99
606.821	225.4
607.063	302.36
607.304	291.67
607.546	280.98
607.787	285.26
608.028	295.95
608.269	308.77
608.511	268.15
608.752	315.19
608.993	242.5
609.234	263.88
609.475	251.05
609.716	315.19
609.957	289.53
610.198	270.29
610.439	238.23
610.68	304.5
610.921	248.91
611.162	266.02
611.402	308.77
611.643	274.57
611.884	287.39
612.125	272.43
612.365	242.5
612.606	302.36
612.846	300.22
613.087	291.67
613.328	276.71
613.568	315.19
613.809	263.88
614.049	257.47
614.289	259.6
614.53	313.05
614.77	276.71
615.01	251.05
615.251	313.05
615.491	287.39
615.731	291.67
615.971	287.39
616.211	272.43
616.451	231.81
616.691	244.64
616.931	261.74
617.171	266.02
617.411	253.19
617.651	291.67
617.891	323.74
618.131	317.32
618.371	285.26
618.61	278.84
618.85	283.12
619.09	246.78
619.33	298.08
619.569	287.39
619.809	293.81
620.048	325.87
620.288	293.81
620.527	248.91
620.767	218.99
621.006	272.43
621.246	285.26
621.485	300.22
621.724	266.02
621.964	272.43
622.203	283.12
622.442	313.05
622.681	302.36
622.92	244.64
623.159	240.36
623.399	283.12
623.638	257.47
623.877	246.78
624.116	261.74
624.355	251.05
624.593	266.02
624.832	272.43
625.071	304.5
625.31	298.08
625.549	293.81
625.787	240.36
626.026	246.78
626.265	266.02
626.503	289.53
626.742	263.88
626.981	295.95
627.219	276.71
627.458	244.64
627.696	289.53
627.934	236.09
628.173	272.43
628.411	261.74
628.649	268.15
628.888	238.23
629.126	242.5
629.364	287.39
629.602	274.57
629.84	289.53
630.079	268.15
630.317	266.02
630.555	315.19
630.793	221.12
631.031	261.74
631.269	257.47
631.506	253.19
631.744	274.57
631.982	276.71
632.22	272.43
632.458	381.46
632.695	268.15
632.933	242.5
633.171	293.81
633.408	251.05
633.646	255.33
633.883	304.5
634.121	287.39
634.358	336.56
634.596	313.05
634.833	285.26
635.071	259.6
635.308	242.5
635.545	287.39
635.782	233.95
636.02	233.95
636.257	285.26
636.494	221.12
636.731	216.85
636.968	263.88
637.205	231.81
637.442	287.39
637.679	278.84
637.916	287.39
638.153	268.15
638.39	274.57
638.627	289.53
638.864	323.74
639.1	289.53
639.337	223.26
639.574	270.29
639.81	280.98
640.047	274.57
640.284	293.81
640.52	287.39
640.757	238.23
640.993	304.5
641.23	261.74
641.466	323.74
641.702	291.67
641.939	302.36
642.175	270.29
642.411	268.15
642.647	261.74
642.884	291.67
643.12	280.98
643.356	261.74
643.592	259.6
643.828	206.16
644.064	255.33
644.3	251.05
644.536	255.33
644.772	257.47
645.008	323.74
645.244	310.91
645.479	289.53
645.715	246.78
645.951	259.6
646.187	276.71
646.422	259.6
646.658	295.95
646.893	276.71
647.129	278.84
647.365	272.43
647.6	287.39
647.835	233.95
648.071	263.88
648.306	283.12
648.542	283.12
648.777	248.91
649.012	274.57
649.247	274.57
649.483	272.43
649.718	285.26
649.953	283.12
650.188	229.67
650.423	251.05
650.658	278.84
650.893	218.99
651.128	315.19
651.363	287.39
651.598	246.78
651.832	332.29
652.067	285.26
652.302	345.11
652.537	310.91
652.771	304.5
653.006	293.81
653.241	278.84
653.475	276.71
653.71	223.26
653.944	259.6
654.179	298.08
654.413	261.74
654.648	263.88
654.882	291.67
655.116	300.22
655.351	266.02
655.585	263.88
655.819	295.95
656.053	261.74
656.287	244.64
656.521	283.12
656.756	272.43
656.99	251.05
657.224	308.77
657.458	285.26
657.691	278.84
657.925	236.09
658.159	244.64
