Data from TORH001341_13-33-32-011.txt Node
Date: Mon Oct 17 13:33:32 CEST 2022
User: M Squared
Spectrometer: TORH00134
Trigger mode: 0
Integration Time (sec): 1.000000E-1
Scans to average: 1
Electric dark correction enabled: true
Nonlinearity correction enabled: false
Boxcar width: 0
XAxis mode: Wavelengths
Number of Pixels in Spectrum: 2048
>>>>>Begin Spectral Data<<<<<
342.893	-65.74
343.163	-65.74
343.434	-65.74
343.705	-89.25
343.975	-33.67
344.246	-97.8
344.516	-76.42
344.787	-8.02
345.057	-20.84
345.328	-50.77
345.598	15.5
345.869	43.29
346.139	-42.22
346.409	49.7
346.68	47.57
346.95	73.22
347.22	107.42
347.491	148.04
347.761	124.52
348.031	122.39
348.301	139.49
348.572	150.18
348.842	199.35
349.112	158.73
349.382	201.48
349.652	180.11
349.922	220.72
350.192	231.41
350.462	289.13
350.732	235.69
351.002	257.06
351.272	210.03
351.542	276.3
351.812	248.51
352.082	212.17
352.352	222.86
352.621	280.58
352.891	229.27
353.161	263.48
353.431	295.54
353.701	250.65
353.97	257.06
354.24	239.96
354.51	265.62
354.779	242.1
355.049	248.51
355.318	295.54
355.588	259.2
355.858	291.27
356.127	261.34
356.397	235.69
356.666	210.03
356.936	197.21
357.205	225
357.474	220.72
357.744	242.1
358.013	252.79
358.283	220.72
358.552	252.79
358.821	222.86
359.09	269.89
359.36	218.59
359.629	182.24
359.898	274.17
360.167	210.03
360.436	195.07
360.706	197.21
360.975	197.21
361.244	235.69
361.513	235.69
361.782	214.31
362.051	212.17
362.32	235.69
362.589	220.72
362.858	246.38
363.127	207.9
363.396	207.9
363.664	218.59
363.933	227.14
364.202	203.62
364.471	225
364.74	242.1
365.008	220.72
365.277	252.79
365.546	177.97
365.815	214.31
366.083	248.51
366.352	276.3
366.62	239.96
366.889	220.72
367.158	197.21
367.426	267.75
367.695	242.1
367.963	148.04
368.232	214.31
368.5	237.83
368.768	239.96
369.037	248.51
369.305	244.24
369.573	212.17
369.842	308.37
370.11	280.58
370.378	286.99
370.647	246.38
370.915	239.96
371.183	252.79
371.451	248.51
371.719	175.83
371.988	231.41
372.256	248.51
372.524	199.35
372.792	263.48
373.06	261.34
373.328	263.48
373.596	233.55
373.864	257.06
374.132	265.62
374.4	220.72
374.667	263.48
374.935	263.48
375.203	225
375.471	225
375.739	182.24
376.007	201.48
376.274	252.79
376.542	257.06
376.81	212.17
377.077	257.06
377.345	199.35
377.613	267.75
377.88	259.2
378.148	274.17
378.415	242.1
378.683	235.69
378.95	244.24
379.218	263.48
379.485	252.79
379.753	291.27
380.02	272.03
380.287	263.48
380.555	220.72
380.822	233.55
381.089	216.45
381.357	242.1
381.624	201.48
381.891	237.83
382.158	265.62
382.426	216.45
382.693	286.99
382.96	233.55
383.227	261.34
383.494	323.34
383.761	257.06
384.028	229.27
384.295	293.41
384.562	229.27
384.829	265.62
385.096	248.51
385.363	265.62
385.63	182.24
385.897	246.38
386.164	218.59
386.43	272.03
386.697	199.35
386.964	180.11
387.231	212.17
387.497	207.9
387.764	229.27
388.031	205.76
388.297	278.44
388.564	257.06
388.831	272.03
389.097	239.96
389.364	269.89
389.63	269.89
389.897	233.55
390.163	225
390.43	212.17
390.696	186.52
390.962	229.27
391.229	269.89
391.495	233.55
391.761	282.72
392.028	188.66
392.294	265.62
392.56	280.58
392.826	306.23
393.093	308.37
393.359	272.03
393.625	261.34
393.891	276.3
394.157	259.2
394.423	276.3
394.689	291.27
394.955	192.93
395.221	297.68
395.487	263.48
395.753	192.93
396.019	250.65
396.285	257.06
396.551	242.1
396.817	308.37
397.082	278.44
397.348	327.61
397.614	286.99
397.88	259.2
398.146	233.55
398.411	229.27
398.677	252.79
398.942	244.24
399.208	231.41
399.474	261.34
399.739	263.48
400.005	254.93
400.27	267.75
400.536	220.72
400.801	263.48
401.067	244.24
401.332	289.13
401.598	227.14
401.863	278.44
402.128	297.68
402.394	229.27
402.659	201.48
402.924	222.86
403.189	218.59
403.455	280.58
403.72	325.47
403.985	218.59
404.25	220.72
404.515	205.76
404.78	250.65
405.045	291.27
405.31	304.1
405.575	280.58
405.84	212.17
406.105	239.96
406.37	274.17
406.635	237.83
406.9	272.03
407.165	248.51
407.43	250.65
407.694	297.68
407.959	282.72
408.224	272.03
408.489	199.35
408.753	239.96
409.018	225
409.283	265.62
409.547	257.06
409.812	312.65
410.077	276.3
410.341	286.99
410.606	282.72
410.87	301.96
411.135	278.44
411.399	254.93
411.663	316.92
411.928	310.51
412.192	280.58
412.457	276.3
412.721	361.81
412.985	297.68
413.249	314.78
413.514	329.75
413.778	261.34
414.042	280.58
414.306	295.54
414.57	331.89
414.835	308.37
415.099	361.81
415.363	334.02
415.627	301.96
415.891	286.99
416.155	344.71
416.419	259.2
416.683	306.23
416.946	282.72
417.21	325.47
417.474	314.78
417.738	304.1
418.002	299.82
418.266	366.09
418.529	391.74
418.793	393.88
419.057	391.74
419.32	370.37
419.584	366.09
419.848	327.61
420.111	376.78
420.375	359.68
420.638	398.16
420.902	410.98
421.165	381.05
421.429	391.74
421.692	381.05
421.956	500.77
422.219	425.95
422.482	470.84
422.746	517.87
423.009	487.94
423.272	428.09
423.536	539.25
423.799	532.84
424.062	511.46
424.325	505.04
424.588	532.84
424.852	599.11
425.115	584.14
425.378	571.31
425.641	603.38
425.904	641.86
426.167	697.44
426.43	691.03
426.693	727.37
426.956	714.54
427.218	772.26
427.481	806.47
427.744	817.16
428.007	849.22
428.27	744.47
428.532	913.36
428.795	900.53
429.058	960.39
429.321	988.18
429.583	996.73
429.846	1090.79
430.108	1030.93
430.371	1033.07
430.634	1043.76
430.896	1225.47
431.159	1167.75
431.421	1204.09
431.683	1336.63
431.946	1330.22
432.208	1353.73
432.471	1372.97
432.733	1456.35
432.995	1402.9
433.258	1514.06
433.52	1635.92
433.782	1680.81
434.044	1742.8
434.306	1719.29
434.569	1762.04
434.831	1809.07
435.093	1922.38
435.355	2044.23
435.617	2108.36
435.879	2123.32
436.141	2069.88
436.403	2268.69
436.665	2313.58
436.927	2347.79
437.189	2345.65
437.45	2437.57
437.712	2563.7
437.974	2649.21
438.236	2771.06
438.498	2809.54
438.759	2800.99
439.021	2875.81
439.283	3068.21
439.544	3241.37
439.806	3136.62
440.067	3198.62
440.329	3444.46
440.59	3491.49
440.852	3500.04
441.113	3700.99
441.375	3728.78
441.636	3790.77
441.898	4021.65
442.159	4132.81
442.42	4158.47
442.682	4457.75
442.943	4594.57
443.204	4645.87
443.466	4868.2
443.727	4908.82
443.988	5088.39
444.249	5182.45
444.51	5329.96
444.771	5597.18
445.032	5840.88
445.293	5911.43
445.554	6129.48
445.815	6501.45
446.076	6567.72
446.337	6800.73
446.598	7095.74
446.859	7373.65
447.12	7593.84
447.381	8034.22
447.642	8260.82
447.902	8438.25
448.163	8575.07
448.424	8852.98
448.685	9472.92
448.945	9695.25
449.206	9849.17
449.466	10095.01
449.727	10550.35
449.988	10605.93
450.248	10877.43
450.509	11191.68
450.769	11469.59
451.03	11792.39
451.29	11807.35
451.55	11862.93
451.811	12140.84
452.071	12547.02
452.331	12459.37
452.592	12681.69
452.852	12807.82
453.112	12572.67
453.372	12596.18
453.633	12493.57
453.893	12850.58
454.153	12303.31
454.413	12228.49
454.673	11860.8
454.933	11736.81
455.193	11260.09
455.453	11270.78
455.713	10913.77
455.973	10689.31
456.233	10231.83
456.493	10005.23
456.752	9725.18
457.012	9216.39
457.272	9032.55
457.532	8624.24
457.792	8448.94
458.051	8136.83
458.311	7799.06
458.571	7643.01
458.83	7386.48
459.09	7123.53
459.349	6802.87
459.609	6529.24
459.868	6561.3
460.128	6396.7
460.387	6093.13
460.647	6076.03
460.906	5967.01
461.166	5560.83
461.425	5603.59
461.684	5449.67
461.944	5411.19
462.203	5289.34
462.462	5062.74
462.721	4987.92
462.98	5107.63
463.24	4994.33
463.499	4853.24
463.758	4821.17
464.017	4656.56
464.276	4712.15
464.535	4598.84
464.794	4699.32
465.053	4620.22
465.312	4648.01
465.571	4509.06
465.83	4425.69
466.088	4318.8
466.347	4560.36
466.606	4395.76
466.865	4312.39
467.123	4359.42
467.382	4320.94
467.641	4293.15
467.9	4359.42
468.158	4318.8
468.417	4149.92
468.675	4111.44
468.934	3991.72
469.192	3923.31
469.451	3908.35
469.709	3737.33
469.968	3735.19
470.226	3797.19
470.484	3805.74
470.743	3765.12
471.001	3534.24
471.259	3624.03
471.518	3493.63
471.776	3517.14
472.034	3450.87
472.292	3335.43
472.55	3192.2
472.809	3172.96
473.067	3192.2
473.325	3098.14
473.583	3213.58
473.841	2942.08
474.099	2895.05
474.357	2741.14
474.615	2982.7
474.872	2788.17
475.13	2882.23
475.388	2743.27
475.646	2764.65
475.904	2687.69
476.161	2715.48
476.419	2734.72
476.677	2572.25
476.935	2655.63
477.192	2615.01
477.45	2602.18
477.707	2617.15
477.965	2531.64
478.222	2567.98
478.48	2644.94
478.737	2416.2
478.995	2576.53
479.252	2465.37
479.51	2589.36
479.767	2587.22
480.024	2666.31
480.282	2484.61
480.539	2501.71
480.796	2597.91
481.053	2706.93
481.31	2649.21
481.568	2655.63
481.825	2595.77
482.082	2649.21
482.339	2567.98
482.596	2724.03
482.853	2653.49
483.11	2670.59
483.367	2711.21
483.624	2734.72
483.881	2726.17
484.138	2589.36
484.394	2719.76
484.651	2657.76
484.908	2553.01
485.165	2403.37
485.421	2518.81
485.678	2589.36
485.935	2726.17
486.191	2786.03
486.448	2865.13
486.705	2895.05
486.961	2835.2
487.218	2768.93
487.474	2924.98
487.731	2803.13
487.987	2850.16
488.243	2948.5
488.5	2786.03
488.756	2897.19
489.012	2899.33
489.269	2709.07
489.525	2809.54
489.781	2745.41
490.037	2771.06
490.294	2890.78
490.55	3025.46
490.806	3373.91
491.062	3335.43
491.318	3273.44
491.574	3309.78
491.83	3215.72
492.086	3085.31
492.342	3232.82
492.598	3125.93
492.854	3192.2
493.11	3211.44
493.365	3363.22
493.621	3352.53
493.877	3388.88
494.133	3504.31
494.388	3547.07
494.644	3583.41
494.9	3594.1
495.155	3713.81
495.411	3795.05
495.667	3673.2
495.922	3835.67
496.178	3861.32
496.433	3822.84
496.688	3852.77
496.944	4004.55
497.199	4111.44
497.455	4040.89
497.71	4190.53
497.965	4154.19
498.221	4342.31
498.476	4331.62
498.731	4423.55
498.986	4526.16
499.241	4600.98
499.496	4677.94
499.752	4677.94
500.007	4686.49
500.262	4831.86
500.517	4998.6
500.772	5197.42
501.027	5126.87
501.282	5092.67
501.536	5233.76
501.791	5336.37
502.046	5374.85
502.301	5590.76
502.556	5552.28
502.81	5704.06
503.065	5731.85
503.32	5870.81
503.574	5868.67
503.829	5877.22
504.084	5890.05
504.338	6304.77
504.593	6407.38
504.847	6274.84
505.102	6488.62
505.356	6666.05
505.611	6642.54
505.865	6755.84
506.119	6787.9
506.374	6875.55
506.628	7080.78
506.882	7181.25
507.136	7093.6
507.391	7337.31
507.645	7371.51
507.899	7435.64
508.153	7448.47
508.407	7681.49
508.661	7698.59
508.915	7679.35
509.169	7799.06
509.423	7818.3
509.677	7938.02
509.931	8333.5
510.185	8245.85
510.439	8350.6
510.693	8318.54
510.946	8594.31
511.2	8656.3
511.454	8741.81
511.708	8889.32
511.961	8897.87
512.215	9004.76
512.469	9122.33
512.722	9316.87
512.976	9408.79
513.229	9462.24
513.483	9716.63
513.736	9750.83
513.99	9996.67
514.243	9819.24
514.496	10163.42
514.75	10304.51
515.003	10449.88
515.256	10266.03
515.51	10717.1
515.763	10712.82
516.016	10832.54
516.269	11076.24
516.522	11005.69
516.775	11133.96
517.029	11213.06
517.282	11206.64
517.535	11373.39
517.788	11595.71
518.041	11719.7
518.293	11982.65
518.546	11929.2
518.799	12328.96
519.052	12175.05
519.305	12467.92
519.558	12138.7
519.81	12581.22
520.063	12856.99
520.316	12901.88
520.568	13036.56
520.821	13192.62
521.074	13124.21
521.326	13113.52
521.579	13359.36
521.831	13440.6
522.084	13902.35
522.336	13866.01
522.589	14167.43
522.841	14381.21
523.093	14242.25
523.346	14409
523.598	14409
523.85	14725.39
524.102	14864.34
524.355	14667.67
524.607	14834.41
524.859	14836.55
525.111	15370.99
525.363	15475.74
525.615	15512.08
525.867	15482.15
526.119	15794.26
526.371	15794.26
526.623	15965.28
526.875	16211.13
527.127	16140.58
527.379	16164.1
527.63	16660.05
527.882	16544.62
528.134	16818.25
528.386	16649.37
528.637	16625.85
528.889	16920.86
529.141	16861
529.392	16873.83
529.644	16920.86
529.895	17316.35
530.147	17203.04
530.398	17433.92
530.65	17472.4
530.901	17436.06
531.152	17613.49
531.404	17825.13
531.655	17645.56
531.906	17743.9
532.158	18032.49
532.409	18094.49
532.66	18438.67
532.911	18165.03
533.162	18648.17
533.413	18111.59
533.664	18205.65
533.915	18442.94
534.166	18665.27
534.417	18522.04
534.668	18885.46
534.919	18973.11
535.17	18808.5
535.421	18791.4
535.672	18866.22
535.923	19052.2
536.173	19176.19
536.424	19295.91
536.675	19599.47
536.925	19360.04
537.176	19498.99
537.427	19710.63
537.677	19575.95
537.928	19903.03
538.178	19779.04
538.429	19768.35
538.679	19928.68
538.93	19631.53
539.18	19849.58
539.43	20200.18
539.681	19952.2
539.931	19988.54
540.181	20054.81
540.432	20486.64
540.682	20095.43
540.932	20679.03
541.182	20582.83
541.432	20520.84
541.682	20463.12
541.932	20548.63
542.182	20657.66
542.432	20909.91
542.682	20894.95
542.932	21061.69
543.182	21491.38
543.432	21318.22
543.682	21185.68
543.932	21164.3
544.181	21408.01
544.431	21715.84
544.681	21365.25
544.93	21655.99
545.18	21688.05
545.43	21970.24
545.679	21878.31
545.929	21615.37
546.178	21946.72
546.428	22023.68
546.677	22162.63
546.927	21998.03
547.176	22066.44
547.425	22181.87
547.675	22513.23
547.924	22801.82
548.173	22639.35
548.422	22233.18
548.672	23024.15
548.921	22823.2
549.17	23297.78
549.419	23182.34
549.668	23105.38
549.917	22998.5
550.166	23210.13
550.415	23532.94
550.664	23291.37
550.913	23616.31
551.162	23840.77
551.411	23753.12
551.66	24206.33
551.908	23866.42
552.157	24018.21
552.406	24048.13
552.655	24516.3
552.903	24191.36
553.152	24499.2
553.4	24843.38
553.649	24849.79
553.898	24824.14
554.146	24772.83
554.395	24832.69
554.643	25102.05
554.891	25606.56
555.14	25880.19
555.388	25471.88
555.636	25052.88
555.885	25807.51
556.133	25576.63
556.381	26459.52
556.629	25999.9
556.878	26436.01
557.126	26002.04
557.374	26359.05
557.622	26463.8
557.87	26508.69
558.118	26981.13
558.366	27205.6
558.614	26855.01
558.862	27000.37
559.11	27393.72
559.357	27573.29
559.605	27323.17
559.853	27425.79
560.101	27819.13
560.348	27688.73
560.596	28176.14
560.844	27868.3
561.091	28056.42
561.339	28336.47
561.586	28351.43
561.834	28293.71
562.081	28663.55
562.329	28650.72
562.576	28492.53
562.824	28746.92
563.071	29127.44
563.318	29381.83
563.566	29279.22
563.813	29426.72
564.06	29112.47
564.307	29708.91
564.555	29488.72
564.802	29783.73
565.049	30006.06
565.296	29813.66
565.543	29837.17
565.79	30467.81
566.037	30087.29
566.284	29941.92
566.531	30352.37
566.778	30337.41
567.024	30493.46
567.271	30692.27
567.518	30234.8
567.765	30918.88
568.012	31036.45
568.258	30901.77
568.505	31107
568.751	30921.01
568.998	31032.18
569.245	30698.69
569.491	31021.49
569.738	30974.46
569.984	31068.52
570.23	31667.09
570.477	31598.68
570.723	31609.37
570.97	31596.55
571.216	31515.31
571.462	31596.55
571.708	31378.49
571.955	31596.55
572.201	31641.44
572.447	31848.8
572.693	31870.18
572.939	31543.1
573.185	31791.08
573.431	31827.42
573.677	31532.41
573.923	31714.12
574.169	31647.85
574.415	31788.94
574.661	31641.44
574.906	31128.38
575.152	31536.69
575.398	31872.32
575.644	31380.63
575.889	31130.51
576.135	31731.22
576.381	31340.01
576.626	31397.73
576.872	31534.55
577.117	31410.56
577.363	31012.94
577.608	31282.3
577.854	31203.2
578.099	31305.81
578.344	31256.64
578.59	31273.74
578.835	31233.13
579.08	31021.49
579.325	30944.53
579.571	30837.64
579.816	30895.36
580.061	30484.91
580.306	30886.81
580.551	30670.9
580.796	31051.42
581.041	30886.81
581.286	30737.17
581.531	30499.88
581.776	30363.06
582.021	30995.84
582.265	30538.36
582.51	30585.39
582.755	30472.09
583	30442.16
583.244	30292.51
583.489	30309.62
583.734	30168.53
583.978	30807.71
584.223	30074.46
584.467	29770.9
584.712	29766.63
584.956	29768.76
585.201	29956.89
585.445	29796.56
585.689	29678.98
585.934	29561.4
586.178	29482.31
586.422	29473.75
586.667	29676.84
586.911	29392.52
587.155	29191.57
587.399	29227.91
587.643	29148.82
587.887	29268.53
588.131	29351.9
588.375	28843.12
588.619	29230.05
588.863	28708.44
589.107	28781.12
589.351	28708.44
589.595	28725.54
589.839	28265.92
590.082	28443.36
590.326	28191.1
590.57	28163.31
590.813	27748.59
591.057	28216.76
591.301	28184.69
591.544	28013.67
591.788	27787.07
592.031	27992.29
592.275	27609.63
592.518	27105.12
592.762	27554.05
593.005	27690.87
593.248	27720.8
593.492	27299.66
593.735	27498.47
593.978	26816.53
594.221	27079.47
594.464	27182.08
594.708	27047.4
594.951	26820.8
595.194	26902.04
595.437	26376.15
595.68	26502.28
595.923	26406.08
596.166	26303.47
596.409	26126.03
596.651	26275.67
596.894	26177.34
597.137	26177.34
597.38	26008.45
597.623	25514.63
597.865	25732.68
598.108	25645.04
598.351	25523.18
598.593	25700.62
598.836	25260.24
599.078	25251.69
599.321	25341.48
599.563	24990.88
599.806	24967.37
600.048	24905.37
600.29	24817.73
600.533	24864.76
600.775	24612.5
601.017	24747.18
601.26	24182.81
601.502	24373.07
601.744	24552.64
601.986	24266.19
602.228	24240.53
602.47	23902.77
602.712	23665.48
602.954	23898.49
603.196	23614.17
603.438	23872.84
603.68	23477.35
603.922	23453.84
604.164	23225.1
604.405	23338.4
604.647	22872.37
604.889	22977.12
605.131	22977.12
605.372	23137.45
605.614	22923.68
605.855	22707.76
606.097	22632.94
606.338	22605.15
606.58	22389.24
606.821	22496.12
607.063	22342.21
607.304	22089.95
607.546	22233.18
607.787	22036.51
608.028	22115.6
608.269	21953.13
608.511	21752.19
608.752	21435.8
608.993	21820.59
609.234	21626.06
609.475	21251.95
609.716	20971.91
609.957	21087.34
610.198	21046.73
610.439	20909.91
610.68	20918.46
610.921	20935.56
611.162	20738.89
611.402	20548.63
611.643	20450.29
611.884	20304.93
612.125	20202.31
612.365	20403.26
612.606	20168.11
612.846	19922.27
613.087	19856
613.328	19554.57
613.568	19616.57
613.809	19665.74
614.049	19186.88
614.289	19295.91
614.53	19330.11
614.77	19197.57
615.01	19280.94
615.251	18934.63
615.491	18782.84
615.731	18778.57
615.971	18590.45
616.211	18652.44
616.451	18566.93
616.691	18489.97
616.931	18209.93
617.171	18233.44
617.411	18158.62
617.651	17865.75
617.891	17765.27
618.131	17604.94
618.371	17758.86
618.61	17523.71
618.85	17446.75
619.09	17029.89
619.33	17087.61
619.569	17096.16
619.809	16598.06
620.048	16672.88
620.288	16722.05
620.527	16238.92
620.767	16328.7
621.006	16352.22
621.246	16266.71
621.485	16138.44
621.724	16012.32
621.964	15738.68
622.203	15766.47
622.442	15717.31
622.681	15569.8
622.92	15383.82
623.159	15056.74
623.399	15101.63
623.638	15223.48
623.877	15069.57
624.116	14770.28
624.355	15037.5
624.593	14524.44
624.832	14701.87
625.071	14592.85
625.31	14406.86
625.549	14244.39
625.787	14195.22
626.026	13970.76
626.265	14002.83
626.503	13543.21
626.742	13622.31
626.981	13590.24
627.219	13429.91
627.458	13487.63
627.696	13305.92
627.934	13340.12
628.173	13038.7
628.411	12985.25
628.649	12752.24
628.888	12743.69
629.126	12630.39
629.364	12532.05
629.602	12600.46
629.84	12502.12
630.079	12164.36
630.317	12155.81
630.555	12106.64
630.793	12040.37
631.031	11788.11
631.269	11713.29
631.506	11745.36
631.744	11570.06
631.982	11411.87
632.22	11514.48
632.458	11315.67
632.695	11136.1
632.933	11202.37
633.171	11166.03
633.408	10858.19
633.646	11099.76
633.883	10791.92
634.121	10593.11
634.358	10535.39
634.596	10514.01
634.833	10353.68
635.071	10268.17
635.308	10150.59
635.545	10159.14
635.782	10000.95
636.02	9966.75
636.257	9851.31
636.494	9738.01
636.731	9716.63
636.968	9648.22
637.205	9481.48
637.442	9658.91
637.679	9547.75
637.916	9417.34
